File: ASCII/cp_metadata.mpt
EC-Lab ASCII FILE
Nb header lines : 58

Chronopotentiometry

Run on channel : 3 (SN 30533)
User :
CE vs. WE compliance from -10 V to 10 V
Electrode connection : standard
Ewe ctrl range : min = -2.50 V, max = 2.50 V
Safety Limits :
	|I| = 10.000 mA
	for t > 10 ms
	Do not start on E overload
Acquisition started on : 09/07/2018 21:04:05
Technique started on : 09/07/2018 21:09:05
Saved on :
	File : A49_3_at80C_0p18mAcm2_02_CP_C03.mpr
	Directory : C:\Users\user\Desktop\IPTS20444\A49_3\
	Host : 10.111.103.71
Device : VSP (SN 1597)
Address : 10.112.22.31
EC-Lab for windows v11.21 (software)
Internet server v11.20 (firmware)
Command interpretor v11.21 (firmware)
Electrode material :
Initial state :
Electrolyte :
Comments :
Electrode surface area : 0.040 cm²
Characteristic mass : 0.001 g
Equivalent Weight : 0.000 g/eq.
Density : 0.000 g/cm3
Text export
   Mode : Standard
   Time format : Absolute ISO 8601
Cycle Definition : Charge/Discharge alternance
Is                  -0.007
unit Is             mA
vs.                 <None>
ts (h:m:s)          1:00:0.0000
EM (V)              pass
dQM                 7.000
unit dQM            µA.h
record              Ewe
dEs (mV)            0.00
dts (s)             1.0000
E range min (V)     -2.500
E range max (V)     2.500
I Range             1 mA
Bandwidth           5
goto Ns'            0
nc cycles           0

Number of loops : 1
Loop 0 from point number 0 to 7200

mode	ox/red	error	control changes	Ns changes	counter inc.	Ns	time/s	control/mA	Ewe/V	I/mA	dQ/C	(Q-Qo)/C	half cycle	Q charge/discharge/mA.h	Q discharge/mA.h	Q charge/mA.h	Capacity/mA.h	Efficiency/%	cycle number	P/W
1	0	0	1	0	0	0	300.052	-0.007	-0.0305614	-0.00595417	0.0000000E+000	0.0000000E+000	0	0.000000000000000E+000	0.000000000000000E+000	0.000000000000000E+000	0.000000000000000E+000	0.0000000E+000	0.000000000000000E+000	1.81968e-07
1	0	0	1	0	0	0	310.052	-0.007	-0.0283628	-0.00521571	-6.80655e-05	-6.80655e-05	0	-1.89071e-05	1.89071e-05	0.000000000000000E+000	1.89071e-05	0.0000000E+000	0.000000000000000E+000	1.47932e-07
1	0	0	1	0	0	0	320.052	-0.007	-0.0216024	-0.00517751	-0.000136599	-0.000136599	0	-3.79442e-05	3.79442e-05	0.000000000000000E+000	3.79442e-05	0.0000000E+000	0.000000000000000E+000	1.11847e-07
1	0	0	1	0	0	0	330.052	-0.007	-0.0269687	-0.00696637	-0.000204848	-0.000204848	0	-5.69022e-05	5.69022e-05	0.000000000000000E+000	5.69022e-05	0.0000000E+000	0.000000000000000E+000	1.87874e-07
1	0	0	1	0	0	0	340.052	-0.007	-0.0278662	-0.00764753	-0.000273364	-0.000273364	0	-7.59344e-05	7.59344e-05	0.000000000000000E+000	7.59344e-05	0.0000000E+000	0.000000000000000E+000	2.13108e-07
1	0	0	1	0	0	0	350.052	-0.007	-0.026243	-0.00542579	-0.000341506	-0.000341506	0	-9.48629e-05	9.48629e-05	0.000000000000000E+000	9.48629e-05	0.0000000E+000	0.000000000000000E+000	1.42389e-07
1	0	0	1	0	0	0	360.052	-0.007	-0.0259756	-0.00722738	-0.000409934	-0.000409934	0	-0.000113871	0.000113871	0.000000000000000E+000	0.000113871	0.0000000E+000	0.000000000000000E+000	1.87736e-07
1	0	0	1	0	0	0	370.052	-0.007	-0.0243142	-0.0076539	-0.000478276	-0.000478276	0	-0.000132854	0.000132854	0.000000000000000E+000	0.000132854	0.0000000E+000	0.000000000000000E+000	1.86098e-07
1	0	0	1	0	0	0	380.052	-0.007	-0.0208194	-0.0093409	-0.000546769	-0.000546769	0	-0.00015188	0.00015188	0.000000000000000E+000	0.00015188	0.0000000E+000	0.000000000000000E+000	1.94472e-07
1	0	0	1	0	0	0	390.052	-0.007	-0.0309791	-0.00729104	-0.000614888	-0.000614888	0	-0.000170802	0.000170802	0.000000000000000E+000	0.000170802	0.0000000E+000	0.000000000000000E+000	2.2587e-07
1	0	0	1	0	0	0	400.052	-0.007	-0.0300433	-0.00808679	-0.000683257	-0.000683257	0	-0.000189794	0.000189794	0.000000000000000E+000	0.000189794	0.0000000E+000	0.000000000000000E+000	2.42954e-07
1	0	0	1	0	0	0	410.052	-0.007	-0.0345502	-0.00675629	-0.000751476	-0.000751476	0	-0.000208743	0.000208743	0.000000000000000E+000	0.000208743	0.0000000E+000	0.000000000000000E+000	2.33431e-07
1	0	0	1	0	0	0	420.052	-0.007	-0.023894	-0.012925	-0.000819888	-0.000819888	0	-0.000227747	0.000227747	0.000000000000000E+000	0.000227747	0.0000000E+000	0.000000000000000E+000	3.0883e-07
1	0	0	1	0	0	0	430.052	-0.007	-0.0226145	-0.00687088	-0.000888383	-0.000888383	0	-0.000246773	0.000246773	0.000000000000000E+000	0.000246773	0.0000000E+000	0.000000000000000E+000	1.55382e-07
1	0	0	1	0	0	0	440.052	-0.007	-0.019559	-0.00518388	-0.000956751	-0.000956751	0	-0.000265764	0.000265764	0.000000000000000E+000	0.000265764	0.0000000E+000	0.000000000000000E+000	1.01391e-07
1	0	0	1	0	0	0	450.052	-0.007	-0.0229392	-0.00806769	-0.00102504	-0.00102504	0	-0.000284733	0.000284733	0.000000000000000E+000	0.000284733	0.0000000E+000	0.000000000000000E+000	1.85066e-07
1	0	0	1	0	0	0	460.052	-0.007	-0.0309218	-0.00680722	-0.00109348	-0.00109348	0	-0.000303745	0.000303745	0.000000000000000E+000	0.000303745	0.0000000E+000	0.000000000000000E+000	2.10491e-07
1	0	0	1	0	0	0	470.052	-0.007	-0.024868	-0.00977379	-0.00116176	-0.00116176	0	-0.000322711	0.000322711	0.000000000000000E+000	0.000322711	0.0000000E+000	0.000000000000000E+000	2.43054e-07
1	0	0	1	0	0	0	480.052	-0.007	-0.0321631	-0.00526027	-0.00123011	-0.00123011	0	-0.000341697	0.000341697	0.000000000000000E+000	0.000341697	0.0000000E+000	0.000000000000000E+000	1.69187e-07
1	0	0	1	0	0	0	490.052	-0.007	-0.021927	-0.00492287	-0.0012985	-0.0012985	0	-0.000360695	0.000360695	0.000000000000000E+000	0.000360695	0.0000000E+000	0.000000000000000E+000	1.07944e-07
1	0	0	1	0	0	0	500.052	-0.007	-0.0271406	-0.0145738	-0.00136664	-0.00136664	0	-0.000379621	0.000379621	0.000000000000000E+000	0.000379621	0.0000000E+000	0.000000000000000E+000	3.9554e-07
1	0	0	1	0	0	0	510.052	-0.007	-0.0287829	-0.00762844	-0.00143529	-0.00143529	0	-0.000398693	0.000398693	0.000000000000000E+000	0.000398693	0.0000000E+000	0.000000000000000E+000	2.19569e-07
1	0	0	1	0	0	0	520.052	-0.007	-0.0383887	-0.0033059	-0.00150342	-0.00150342	0	-0.000417617	0.000417617	0.000000000000000E+000	0.000417617	0.0000000E+000	0.000000000000000E+000	1.26909e-07
1	0	0	1	0	0	0	530.052	-0.007	-0.0166562	-0.0145101	-0.00157195	-0.00157195	0	-0.000436653	0.000436653	0.000000000000000E+000	0.000436653	0.0000000E+000	0.000000000000000E+000	2.41684e-07
1	0	0	1	0	0	0	540.052	-0.007	-0.0242378	-0.00759661	-0.00164033	-0.00164033	0	-0.000455647	0.000455647	0.000000000000000E+000	0.000455647	0.0000000E+000	0.000000000000000E+000	1.84125e-07
1	0	0	1	0	0	0	550.052	-0.007	-0.0174392	-0.0138226	-0.00170852	-0.00170852	0	-0.000474589	0.000474589	0.000000000000000E+000	0.000474589	0.0000000E+000	0.000000000000000E+000	2.41055e-07
1	0	0	1	0	0	0	560.052	-0.007	-0.0228819	-0.0063616	-0.00177706	-0.00177706	0	-0.000493627	0.000493627	0.000000000000000E+000	0.000493627	0.0000000E+000	0.000000000000000E+000	1.45565e-07
1	0	0	1	0	0	0	570.052	-0.007	-0.0324305	-0.00888891	-0.00184528	-0.00184528	0	-0.000512577	0.000512577	0.000000000000000E+000	0.000512577	0.0000000E+000	0.000000000000000E+000	2.88271e-07
1	0	0	1	0	0	0	580.052	-0.007	-0.0411196	-0.00472553	-0.00191376	-0.00191376	0	-0.000531601	0.000531601	0.000000000000000E+000	0.000531601	0.0000000E+000	0.000000000000000E+000	1.94312e-07
1	0	0	1	0	0	0	590.052	-0.007	-0.00783337	-0.00492924	-0.00198211	-0.00198211	0	-0.000550586	0.000550586	0.000000000000000E+000	0.000550586	0.0000000E+000	0.000000000000000E+000	3.86126e-08
1	0	0	1	0	0	0	600.052	-0.007	-0.0268541	-0.00753294	-0.00205056	-0.00205056	0	-0.0005696	0.0005696	0.000000000000000E+000	0.0005696	0.0000000E+000	0.000000000000000E+000	2.0229e-07
1	0	0	1	0	0	0	610.052	-0.007	-0.0299287	-0.0040189	-0.00211883	-0.00211883	0	-0.000588564	0.000588564	0.000000000000000E+000	0.000588564	0.0000000E+000	0.000000000000000E+000	1.2028e-07
1	0	0	1	0	0	0	620.052	-0.007	-0.022519	-0.0126767	-0.00218713	-0.00218713	0	-0.000607535	0.000607535	0.000000000000000E+000	0.000607535	0.0000000E+000	0.000000000000000E+000	2.85467e-07
1	0	0	1	0	0	0	630.052	-0.007	-0.0252117	-0.00622791	-0.00225547	-0.00225547	0	-0.000626519	0.000626519	0.000000000000000E+000	0.000626519	0.0000000E+000	0.000000000000000E+000	1.57016e-07
1	0	0	1	0	0	0	640.052	-0.007	-0.0275607	-0.00752021	-0.00232373	-0.00232373	0	-0.00064548	0.00064548	0.000000000000000E+000	0.00064548	0.0000000E+000	0.000000000000000E+000	2.07262e-07
1	0	0	1	0	0	0	650.052	-0.007	-0.0304253	-0.00635523	-0.00239213	-0.00239213	0	-0.000664481	0.000664481	0.000000000000000E+000	0.000664481	0.0000000E+000	0.000000000000000E+000	1.93359e-07
1	0	0	1	0	0	0	660.052	-0.007	-0.0495988	-0.00416532	-0.00246038	-0.00246038	0	-0.000683438	0.000683438	0.000000000000000E+000	0.000683438	0.0000000E+000	0.000000000000000E+000	2.06594e-07
1	0	0	1	0	0	0	670.052	-0.007	-0.023684	-0.00359874	-0.00252872	-0.00252872	0	-0.000702422	0.000702422	0.000000000000000E+000	0.000702422	0.0000000E+000	0.000000000000000E+000	8.52324e-08
1	0	0	1	0	0	0	680.052	-0.007	-0.0276562	-0.00736743	-0.00259708	-0.00259708	0	-0.000721411	0.000721411	0.000000000000000E+000	0.000721411	0.0000000E+000	0.000000000000000E+000	2.03755e-07
1	0	0	1	0	0	0	690.052	-0.007	-0.0219843	-0.00886981	-0.00266564	-0.00266564	0	-0.000740455	0.000740455	0.000000000000000E+000	0.000740455	0.0000000E+000	0.000000000000000E+000	1.94997e-07
1	0	0	1	0	0	0	700.052	-0.007	-0.0422655	0.000755625	-0.00273393	-0.00273393	0	-0.000759425	0.000759425	0.000000000000000E+000	0.000759425	0.0000000E+000	0.000000000000000E+000	-3.19368e-08
1	0	0	1	0	0	0	710.052	-0.007	-0.0342065	-0.00726557	-0.00280224	-0.00280224	0	-0.000778401	0.000778401	0.000000000000000E+000	0.000778401	0.0000000E+000	0.000000000000000E+000	2.4853e-07
1	0	0	1	0	0	0	720.052	-0.007	-0.0331752	-0.00803586	-0.0028706	-0.0028706	0	-0.00079739	0.00079739	0.000000000000000E+000	0.00079739	0.0000000E+000	0.000000000000000E+000	2.66592e-07
1	0	0	1	0	0	0	730.052	-0.007	-0.00424312	-0.0089653	-0.00293896	-0.00293896	0	-0.000816377	0.000816377	0.000000000000000E+000	0.000816377	0.0000000E+000	0.000000000000000E+000	3.80408e-08
1	0	0	1	0	0	0	740.052	-0.007	-0.0169427	-0.00575682	-0.00300732	-0.00300732	0	-0.000835366	0.000835366	0.000000000000000E+000	0.000835366	0.0000000E+000	0.000000000000000E+000	9.75361e-08
1	0	0	1	0	0	0	750.052	-0.007	-0.0271215	-0.00391067	-0.00307551	-0.00307551	0	-0.000854309	0.000854309	0.000000000000000E+000	0.000854309	0.0000000E+000	0.000000000000000E+000	1.06063e-07
1	0	0	1	0	0	0	760.052	-0.007	-0.03371	-0.00230644	-0.00314389	-0.00314389	0	-0.000873302	0.000873302	0.000000000000000E+000	0.000873302	0.0000000E+000	0.000000000000000E+000	7.77498e-08
1	0	0	1	0	0	0	770.052	-0.007	-0.0309791	-0.00816318	-0.00321232	-0.00321232	0	-0.00089231	0.00089231	0.000000000000000E+000	0.00089231	0.0000000E+000	0.000000000000000E+000	2.52888e-07
1	0	0	1	0	0	0	780.052	-0.007	-0.0371474	-0.00808042	-0.00328061	-0.00328061	0	-0.00091128	0.00091128	0.000000000000000E+000	0.00091128	0.0000000E+000	0.000000000000000E+000	3.00167e-07
1	0	0	1	0	0	0	790.052	-0.007	-0.0322777	-0.0066799	-0.0033489	-0.0033489	0	-0.000930251	0.000930251	0.000000000000000E+000	0.000930251	0.0000000E+000	0.000000000000000E+000	2.15612e-07
1	0	0	1	0	0	0	800.052	-0.007	-0.0396683	-0.00425444	-0.00341713	-0.00341713	0	-0.000949202	0.000949202	0.000000000000000E+000	0.000949202	0.0000000E+000	0.000000000000000E+000	1.68766e-07
1	0	0	1	0	0	0	810.052	-0.007	-0.0316475	-0.00888891	-0.0034856	-0.0034856	0	-0.000968223	0.000968223	0.000000000000000E+000	0.000968223	0.0000000E+000	0.000000000000000E+000	2.81311e-07
1	0	0	1	0	0	0	820.052	-0.007	-0.0256701	-0.0101812	-0.00355393	-0.00355393	0	-0.000987203	0.000987203	0.000000000000000E+000	0.000987203	0.0000000E+000	0.000000000000000E+000	2.61352e-07